  STEP   TOTAL TIME             LOCATION OF OBSERVATION POINTS (K,I,J)
                      1  16  16
     1    2.5000        3.7935    
     1    5.0000        7.4273    
     1    7.5000        10.908    
     1    10.000        14.243    
     1    12.500        17.438    
     1    15.000        20.499    
     1    17.500        23.431    
     1    20.000        26.242    
     1    22.500        28.935    
     1    25.000        31.515    
     1    27.500        33.989    
     1    30.000        36.359    
     1    32.500        38.631    
     1    35.000        40.809    
     1    37.500        42.897    
     1    40.000        44.899    
     1    42.500        46.818    
     1    45.000        48.658    
     1    47.500        50.423    
     1    50.000        52.115    
     1    52.500        53.738    
     1    55.000        55.295    
     1    57.500        56.789    
     1    60.000        58.222    
     1    62.500        59.597    
     1    65.000        60.916    
     1    67.500        62.182    
     1    70.000        63.397    
     1    72.500        64.564    
     1    75.000        65.684    
     1    77.500        66.759    
     1    80.000        67.791    
     1    82.500        68.783    
     1    85.000        69.735    
     1    87.500        70.650    
     1    90.000        71.529    
     1    92.500        72.374    
     1    95.000        73.185    
     1    97.500        73.965    
     1    100.00        74.715    
     1    102.50        75.436    
     1    105.00        76.130    
     1    107.50        76.797    
     1    110.00        77.438    
     1    112.50        78.055    
     1    115.00        78.649    
     1    117.50        79.221    
     1    120.00        79.771    
     1    122.50        80.301    
     1    125.00        80.811    
     1    127.50        81.302    
     1    130.00        81.775    
     1    132.50        82.231    
     1    135.00        82.670    
     1    137.50        83.094    
     1    140.00        83.502    
     1    142.50        83.896    
     1    145.00        84.276    
     1    147.50        84.642    
     1    150.00        84.996    
     1    152.50        85.337    
     1    155.00        85.666    
     1    157.50        85.984    
     1    160.00        86.292    
     1    162.50        86.588    
     1    165.00        86.875    
     1    167.50        87.152    
     1    170.00        87.420    
     1    172.50        87.680    
     1    175.00        87.930    
     1    177.50        88.173    
     1    180.00        88.408    
     1    182.50        88.635    
     1    185.00        88.855    
     1    187.50        89.069    
     1    190.00        89.275    
     1    192.50        89.476    
     1    195.00        89.670    
     1    197.50        89.858    
     1    200.00        90.041    
     1    202.50        90.218    
     1    205.00        90.390    
     1    207.50        90.557    
     1    210.00        90.719    
     1    212.50        90.877    
     1    215.00        91.030    
     1    217.50        91.179    
     1    220.00        91.323    
     1    222.50        91.464    
     1    225.00        91.601    
     1    227.50        91.734    
     1    230.00        91.864    
     1    232.50        91.990    
     1    235.00        92.114    
     1    237.50        92.234    
     1    240.00        92.350    
     1    242.50        92.464    
     1    245.00        92.576    
     1    247.50        92.684    
     1    250.00        92.790    
     1    252.50        92.893    
     1    255.00        92.994    
     1    257.50        93.093    
     1    260.00        93.189    
     1    262.50        93.283    
     1    265.00        93.375    
     1    267.50        93.465    
     1    270.00        93.553    
     1    272.50        93.639    
     1    275.00        93.723    
     1    277.50        93.806    
     1    280.00        93.887    
     1    282.50        93.966    
     1    285.00        94.043    
     1    287.50        94.119    
     1    290.00        94.194    
     1    292.50        94.267    
     1    295.00        94.338    
     1    297.50        94.409    
     1    300.00        94.477    
     1    302.50        94.545    
     1    305.00        94.611    
     1    307.50        94.677    
     1    310.00        94.741    
     1    312.50        94.804    
     1    315.00        94.865    
     1    317.50        94.926    
     1    320.00        94.986    
     1    322.50        95.045    
     1    325.00        95.102    
     1    327.50        95.159    
     1    330.00        95.215    
     1    332.50        95.270    
     1    335.00        95.324    
     1    337.50        95.377    
     1    340.00        95.430    
     1    342.50        95.481    
     1    345.00        95.532    
     1    347.50        95.582    
     1    350.00        95.631    
     1    352.50        95.680    
     1    355.00        95.728    
     1    357.50        95.775    
     1    360.00        95.822    
     1    362.50        95.867    
     1    365.00        95.913    
     1    367.50        95.957    
     1    370.00        96.001    
     1    372.50        96.045    
     1    375.00        96.087    
     1    377.50        96.130    
     1    380.00        96.171    
     1    382.50        96.213    
     1    385.00        96.253    
     1    387.50        96.293    
     1    390.00        96.333    
     1    392.50        96.372    
     1    395.00        96.410    
     1    397.50        96.449    
     1    400.00        96.486    
     1    402.50        96.523    
     1    405.00        96.560    
     1    407.50        96.596    
     1    410.00        96.632    
     1    412.50        96.668    
     1    415.00        96.703    
     1    417.50        96.737    
     1    420.00        96.771    
     1    422.50        96.805    
     1    425.00        96.839    
     1    427.50        96.872    
     1    430.00        96.904    
     1    432.50        96.937    
     1    435.00        96.969    
     1    437.50        97.000    
     1    440.00        97.031    
     1    442.50        97.062    
     1    445.00        97.093    
     1    447.50        97.123    
     1    450.00        97.153    
     1    452.50        97.182    
     1    455.00        97.212    
     1    457.50        97.240    
     1    460.00        97.269    
     1    462.50        97.297    
     1    465.00        97.325    
     1    467.50        97.353    
     1    470.00        97.380    
     1    472.50        97.408    
     1    475.00        97.434    
     1    477.50        97.461    
     1    480.00        97.487    
     1    482.50        97.513    
     1    485.00        97.539    
     1    487.50        97.565    
     1    490.00        97.590    
     1    492.50        97.615    
     1    495.00        97.639    
     1    497.50        97.664    
     1    500.00        97.688    
     1    502.50        97.712    
     1    505.00        97.736    
     1    507.50        97.759    
     1    510.00        97.783    
     1    512.50        97.806    
     1    515.00        97.828    
     1    517.50        97.851    
     1    520.00        97.873    
     1    522.50        97.896    
     1    525.00        97.917    
     1    527.50        97.939    
     1    530.00        97.961    
     1    532.50        97.982    
     1    535.00        98.003    
     1    537.50        98.024    
     1    540.00        98.045    
     1    542.50        98.065    
     1    545.00        98.085    
     1    547.50        98.105    
     1    550.00        98.125    
     1    552.50        98.145    
     1    555.00        98.165    
     1    557.50        98.184    
     1    560.00        98.203    
     1    562.50        98.222    
     1    565.00        98.241    
     1    567.50        98.259    
     1    570.00        98.278    
     1    572.50        98.296    
     1    575.00        98.314    
     1    577.50        98.332    
     1    580.00        98.350    
     1    582.50        98.367    
     1    585.00        98.385    
     1    587.50        98.402    
     1    590.00        98.419    
     1    592.50        98.436    
     1    595.00        98.453    
     1    597.50        98.469    
     1    600.00        98.486    
     1    602.50        98.502    
     1    605.00        98.518    
     1    607.50        98.534    
     1    610.00        98.550    
     1    612.50        98.566    
     1    615.00        98.581    
     1    617.50        98.596    
     1    620.00        98.612    
     1    622.50        98.627    
     1    625.00        98.642    
     1    627.50        98.657    
     1    630.00        98.671    
     1    632.50        98.686    
     1    635.00        98.700    
     1    637.50        98.715    
     1    640.00        98.729    
     1    642.50        98.743    
     1    645.00        98.757    
     1    647.50        98.770    
     1    650.00        98.784    
     1    652.50        98.798    
     1    655.00        98.811    
     1    657.50        98.824    
     1    660.00        98.837    
     1    662.50        98.850    
     1    665.00        98.863    
     1    667.50        98.876    
     1    670.00        98.889    
     1    672.50        98.901    
     1    675.00        98.914    
     1    677.50        98.926    
     1    680.00        98.938    
     1    682.50        98.950    
     1    685.00        98.962    
     1    687.50        98.974    
     1    690.00        98.986    
     1    692.50        98.998    
     1    695.00        99.009    
     1    697.50        99.021    
     1    700.00        99.032    
     1    702.50        99.043    
     1    705.00        99.054    
     1    707.50        99.065    
     1    710.00        99.076    
     1    712.50        99.087    
     1    715.00        99.098    
     1    717.50        99.109    
     1    720.00        99.119    
     1    722.50        99.130    
     1    725.00        99.140    
     1    727.50        99.150    
     1    730.00        99.160    
     1    732.50        99.170    
     1    735.00        99.180    
     1    737.50        99.190    
     1    740.00        99.200    
     1    742.50        99.210    
     1    745.00        99.219    
     1    747.50        99.229    
     1    750.00        99.238    
     1    752.50        99.248    
     1    755.00        99.257    
     1    757.50        99.266    
     1    760.00        99.275    
     1    762.50        99.284    
     1    765.00        99.293    
     1    767.50        99.302    
     1    770.00        99.311    
     1    772.50        99.320    
     1    775.00        99.328    
     1    777.50        99.337    
     1    780.00        99.345    
     1    782.50        99.354    
     1    785.00        99.362    
     1    787.50        99.370    
     1    790.00        99.378    
     1    792.50        99.386    
     1    795.00        99.394    
     1    797.50        99.402    
     1    800.00        99.410    
     1    802.50        99.418    
     1    805.00        99.426    
     1    807.50        99.433    
     1    810.00        99.441    
     1    812.50        99.448    
     1    815.00        99.456    
     1    817.50        99.463    
     1    820.00        99.471    
     1    822.50        99.478    
     1    825.00        99.485    
     1    827.50        99.492    
     1    830.00        99.499    
     1    832.50        99.506    
     1    835.00        99.513    
     1    837.50        99.520    
     1    840.00        99.527    
     1    842.50        99.533    
     1    845.00        99.540    
     1    847.50        99.547    
     1    850.00        99.553    
     1    852.50        99.560    
     1    855.00        99.566    
     1    857.50        99.573    
     1    860.00        99.579    
     1    862.50        99.585    
     1    865.00        99.591    
     1    867.50        99.597    
     1    870.00        99.603    
     1    872.50        99.609    
     1    875.00        99.615    
     1    877.50        99.621    
     1    880.00        99.627    
     1    882.50        99.633    
     1    885.00        99.639    
     1    887.50        99.644    
     1    890.00        99.650    
     1    892.50        99.656    
     1    895.00        99.661    
     1    897.50        99.667    
     1    900.00        99.672    
     1    902.50        99.678    
     1    905.00        99.683    
     1    907.50        99.688    
     1    910.00        99.693    
     1    912.50        99.699    
     1    915.00        99.692    
     1    917.50        99.684    
     1    920.00        99.677    
     1    922.50        99.668    
     1    925.00        99.659    
     1    927.50        99.649    
     1    930.00        99.639    
     1    932.50        99.628    
     1    935.00        99.617    
     1    937.50        99.605    
     1    940.00        99.592    
     1    942.50        99.579    
     1    945.00        99.565    
     1    947.50        99.551    
     1    950.00        99.536    
     1    952.50        99.520    
     1    955.00        99.503    
     1    957.50        99.486    
     1    960.00        99.469    
     1    962.50        99.450    
     1    965.00        99.431    
     1    967.50        99.412    
     1    970.00        99.391    
     1    972.50        99.370    
     1    975.00        99.349    
     1    977.50        99.326    
     1    980.00        99.303    
     1    982.50        99.279    
     1    985.00        99.255    
     1    987.50        99.230    
     1    990.00        99.204    
     1    992.50        99.177    
     1    995.00        99.150    
     1    997.50        99.122    
     1    1000.0        99.093    
     1    1002.5        99.064    
     1    1005.0        99.033    
     1    1007.5        99.002    
     1    1010.0        98.971    
     1    1012.5        98.938    
     1    1015.0        98.905    
     1    1017.5        98.871    
     1    1020.0        98.836    
     1    1022.5        98.801    
     1    1025.0        98.765    
     1    1027.5        98.728    
     1    1030.0        98.690    
     1    1032.5        98.652    
     1    1035.0        98.612    
     1    1037.5        98.572    
     1    1040.0        98.531    
     1    1042.5        98.490    
     1    1045.0        98.447    
     1    1047.5        98.403    
     1    1050.0        98.353    
     1    1052.5        98.297    
     1    1055.0        98.236    
     1    1057.5        98.169    
     1    1060.0        98.097    
     1    1062.5        98.019    
     1    1065.0        97.937    
     1    1067.5        97.850    
     1    1070.0        97.758    
     1    1072.5        97.661    
     1    1075.0        97.560    
     1    1077.5        97.455    
     1    1080.0        97.345    
     1    1082.5        97.231    
     1    1085.0        97.113    
     1    1087.5        96.991    
     1    1090.0        96.866    
     1    1092.5        96.737    
     1    1095.0        96.604    
     1    1097.5        96.468    
     1    1100.0        96.328    
     1    1102.5        96.185    
     1    1105.0        96.039    
     1    1107.5        95.890    
     1    1110.0        95.737    
     1    1112.5        95.582    
     1    1115.0        95.424    
     1    1117.5        95.264    
     1    1120.0        95.100    
     1    1122.5        94.934    
     1    1125.0        94.766    
     1    1127.5        94.595    
     1    1130.0        94.422    
     1    1132.5        94.246    
     1    1135.0        94.069    
     1    1137.5        93.889    
     1    1140.0        93.707    
     1    1142.5        93.523    
     1    1145.0        93.337    
     1    1147.5        93.149    
     1    1150.0        92.960    
     1    1152.5        92.768    
     1    1155.0        92.575    
     1    1157.5        92.381    
     1    1160.0        92.184    
     1    1162.5        91.986    
     1    1165.0        91.787    
     1    1167.5        91.586    
     1    1170.0        91.384    
     1    1172.5        91.181    
     1    1175.0        90.976    
     1    1177.5        90.770    
     1    1180.0        90.563    
     1    1182.5        90.354    
     1    1185.0        90.145    
     1    1187.5        89.934    
     1    1190.0        89.723    
     1    1192.5        89.510    
     1    1195.0        89.296    
     1    1197.5        89.082    
     1    1200.0        88.867    
     1    1202.5        88.650    
     1    1205.0        88.434    
     1    1207.5        88.216    
     1    1210.0        87.997    
     1    1212.5        87.778    
     1    1215.0        87.558    
     1    1217.5        87.338    
     1    1220.0        87.117    
     1    1222.5        86.895    
     1    1225.0        86.673    
     1    1227.5        86.450    
     1    1230.0        86.227    
     1    1232.5        86.003    
     1    1235.0        85.779    
     1    1237.5        85.554    
     1    1240.0        85.329    
     1    1242.5        85.104    
     1    1245.0        84.878    
     1    1247.5        84.652    
     1    1250.0        84.426    
     1    1252.5        84.199    
     1    1255.0        83.972    
     1    1257.5        83.745    
     1    1260.0        83.518    
     1    1262.5        83.290    
     1    1265.0        83.062    
     1    1267.5        82.834    
     1    1270.0        82.606    
     1    1272.5        82.378    
     1    1275.0        82.150    
     1    1277.5        81.921    
     1    1280.0        81.693    
     1    1282.5        81.464    
     1    1285.0        81.236    
     1    1287.5        81.007    
     1    1290.0        80.779    
     1    1292.5        80.550    
     1    1295.0        80.322    
     1    1297.5        80.093    
     1    1300.0        79.865    
     1    1302.5        79.636    
     1    1305.0        79.408    
     1    1307.5        79.180    
     1    1310.0        78.951    
     1    1312.5        78.723    
     1    1315.0        78.495    
     1    1317.5        78.267    
     1    1320.0        78.040    
     1    1322.5        77.812    
     1    1325.0        77.585    
     1    1327.5        77.357    
     1    1330.0        77.130    
     1    1332.5        76.904    
     1    1335.0        76.677    
     1    1337.5        76.450    
     1    1340.0        76.224    
     1    1342.5        75.998    
     1    1345.0        75.772    
     1    1347.5        75.547    
     1    1350.0        75.321    
     1    1352.5        75.096    
     1    1355.0        74.872    
     1    1357.5        74.647    
     1    1360.0        74.423    
     1    1362.5        74.199    
     1    1365.0        73.975    
     1    1367.5        73.752    
     1    1370.0        73.529    
     1    1372.5        73.306    
     1    1375.0        73.084    
     1    1377.5        72.861    
     1    1380.0        72.640    
     1    1382.5        72.418    
     1    1385.0        72.197    
     1    1387.5        71.976    
     1    1390.0        71.756    
     1    1392.5        71.536    
     1    1395.0        71.316    
     1    1397.5        71.097    
     1    1400.0        70.878    
     1    1402.5        70.659    
     1    1405.0        70.441    
     1    1407.5        70.223    
     1    1410.0        70.006    
     1    1412.5        69.788    
     1    1415.0        69.572    
     1    1417.5        69.355    
     1    1420.0        69.140    
